# File created = Wednesday, January 8, 2025 at 9:47:39 AM Central European Standard Time
# Data set = metacetamol_400  10  1  D:\widma\BEST-CSP
# Spectral Region:
# LEFT = 200.0 ppm. RIGHT = 0.0 ppm.
#
# SIZE = 7387 ( = number of points)
#
# In the following ordering is from the 'left' to the 'right' limits!
# Lines beginning with '#' must be considered as comment lines.
#
-587892.5625
-585965.25
-581182.25
-574443.6875
-567067.625
-560460.125
-555765.8125
-553584.375
-553813.125
-555654.0
-557786.1875
-558678.5
-556978.4375
-551888.0625
-543425.5
-532482.5625
-520641.0
-509777.375
-501565.3125
-497026.125
-496276.75
-498562.125
-502559.8125
-506847.4375
-510363.8125
-512700.8125
-514134.75
-515409.625
-517380.0
-520667.6875
-525465.0
-531542.875
-538429.9375
-545659.25
-552961.3125
-560321.25
-567887.75
-575789.5
-583951.5
-591993.4375
-599248.9375
-604889.75
-608101.8125
-608253.125
-605011.375
-598402.4375
-588821.0
-577010.625
-564016.875
-551104.3125
-539623.0
-530825.6875
-525660.6875
-524589.75
-527484.875
-533639.8125
-541898.125
-550862.0625
-559126.8125
-565484.375
-569065.5625
-569413.875
-566506.6875
-560739.6875
-552882.8125
-544000.375
-535326.4375
-528095.625
-523351.375
-521771.25
-523551.625
-528381.0625
-535505.375
-543861.625
-552248.6875
-559504.0
-564671.75
-567154.125
-566834.0625
-564141.4375
-560022.5
-555777.8125
-552770.9375
-552068.0625
-554119.25
-558609.625
-564566.1875
-570714.4375
-575969.875
-579874.875
-582790.3125
-585740.3125
-589948.6875
-596247.25
-604602.3125
-613971.3125
-622567.75
-628440.0625
-630136.5
-627194.1875
-620268.875
-610881.9375
-600919.625
-592107.875
-585664.5625
-582216.0625
-581922.875
-584661.25
-590109.375
-597676.5625
-606345.4375
-614587.375
-620505.75
-622255.75
-618629.25
-609569.4375
-596359.625
-581341.625
-567215.25
-556165.3125
-549157.0
-545689.25
-544108.3125
-542350.0
-538798.5625
-532909.75
-525357.1875
-517674.875
-511581.6875
-508293.8125
-508108.6875
-510398.75
-513964.4375
-517550.5625
-520288.875
-521903.375
-522645.6875
-523054.375
-523686.5625
-524941.1875
-527011.875
-529926.5625
-533596.75
-537825.875
-542287.3125
-546528.8125
-550059.5625
-552522.875
-553884.1875
-554520.875
-555124.5
-556413.9375
-558767.625
-561953.625
-565115.75
-567067.5
-566790.9375
-563919.3125
-558965.1875
-553156.25
-547924.625
-544266.75
-542270.375
-541044.125
-539103.875
-535058.25
-528288.875
-519317.625
-509691.8125
-501438.5625
-496332.1875
-495295.4375
-498178.4375
-503976.375
-511341.0625
-519121.9375
-526686.75
-533906.5625
-540872.625
-547544.5
-553547.0625
-558236.125
-560991.0
-561565.4375
-560291.6875
-558015.5625
-555784.25
-554443.4375
-554346.875
-555318.125
-556866.375
-558522.0625
-560097.875
-561729.625
-563681.5625
-566042.0
-568503.75
-570385.5
-570918.3125
-569665.1875
-566853.8125
-563423.625
-560724.625
-559980.125
-561756.625
-565692.9375
-570629.25
-575086.8125
-577883.5625
-578607.625
-577742.125
-576404.4375
-575843.8125
-576944.8125
-579958.75
-584552.5625
-590095.4375
-595987.375
-601835.375
-607391.4375
-612324.0
-616010.8125
-617543.75
-616024.6875
-611054.0
-603173.0
-593992.375
-585857.0
-581104.1875
-581184.375
-586009.1875
-593832.3125
-601759.5625
-606722.125
-606548.4375
-600720.6875
-590530.0625
-578588.5
-567907.9375
-560915.1875
-558764.375
-561160.625
-566687.625
-573438.9375
-579670.6875
-584235.0
-586691.625
-587146.625
-585968.1875
-583538.125
-580131.625
-575921.6875
-571037.6875
-565597.25
-559676.0625
-553245.9375
-546149.6875
-538168.5
-529182.0625
-519349.6875
-509207.25
-499595.6875
-491415.5625
-485297.1875
-481336.5625
-479040.625
-477540.8125
-476008.25
-474098.1875
-472213.0625
-471432.25
-473096.375
-478186.5625
-486752.3125
-497643.6875
-508702.125
-517381.375
-521592.125
-520456.375
-514674.0
-506343.375
-498285.4375
-493114.1875
-492400.5625
-496240.25
-503379.125
-511828.0
-519705.875
-525963.875
-530699.0
-534943.0625
-540035.6875
-546866.625
-555326.3125
-564213.375
-571648.25
-575822.75
-575767.0625
-571806.625
-565511.5
-559157.5
-554922.0
-554144.0625
-556939.0
-562296.6875
-568581.4375
-574191.3125
-578087.5625
-579994.625
-580240.625
-579380.6875
-577829.125
-575692.8125
-572866.5
-569295.75
-565215.625
-561190.375
-557895.0
-555739.4375
-554545.5625
-553485.5
-551370.5625
-547196.375
-540697.3125
-532627.125
-524587.5625
-518436.5
-515515.875
-516050.375
-519011.75
-522543.3125
-524781.25
-524715.25
-522696.1875
-520346.5625
-519891.5625
-523191.75
-530895.1875
-542076.6875
-554517.3125
-565498.8125
-572768.75
-575275.875
-573394.375
-568594.625
-562755.0625
-557446.875
-553493.6875
-550951.5
-549440.8125
-548609.5625
-548470.125
-549449.1875
-552152.25
-556990.875
-563879.375
-572155.9375
-580758.0625
-588555.0625
-594671.3125
-598660.0
-600477.875
-600319.1875
-598426.9375
-594991.3125
-590171.5625
-584195.3125
-577441.5625
-570426.375
-563679.5625
-557573.4375
-552203.9375
-547401.3125
-542873.4375
-538406.375
-534007.5625
-529904.0625
-526389.625
-523605.0625
-521383.1875
-519262.9375
-516689.9375
-513312.1875
-509218.4375
-504982.4375
-501469.9375
-499490.4375
-499461.375
-501255.6875
-504316.4375
-507983.4375
-511865.375
-516060.6875
-521104.3125
-527659.4375
-536109.25
-546262.625
-557335.5
-568228.75
-577968.0625
-586081.375
-592715.125
-598422.9375
-603731.4375
-608713.125
-612800.1875
-614959.0
-614159.625
-609916.4375
-602627.5
-593528.75
-584265.8125
-576275.8125
-570272.25
-566077.4375
-562879.625
-559779.0
-556343.0
-552884.3125
-550315.5
-549650.0625
-551402.0
-555196.8125
-559808.0625
-563624.9375
-565340.0625
-564531.0625
-561851.0
-558725.5
-556688.375
-556659.875
-558499.25
-561034.25
-562548.1875
-561496.5
-557131.375
-549769.625
-540618.6875
-531280.6875
-523191.1875
-517248.625
-513769.125
-512721.5625
-514055.3125
-517902.5
-524520.75
-534002.6875
-545918.1875
-559108.375
-571783.0
-581926.4375
-587858.5625
-588716.0625
-584650.6875
-576668.125
-566197.0
-554589.1875
-542769.625
-531164.5
-519891.1875
-509069.625
-499068.9375
-490552.3125
-484304.3125
-480937.8125
-480642.125
-483102.375
-487627.8125
-493413.9375
-499801.625
-506404.0
-513056.75
-519645.5625
-525935.625
-531523.0
-535954.8125
-538961.5625
-540669.375
-541654.25
-542771.75
-544809.625
-548109.8125
-552337.4375
-556518.9375
-559353.25
-559675.3125
-556877.125
-551110.4375
-543191.3125
-534259.125
-525350.875
-517078.6875
-509545.25
-502512.5
-495722.625
-489203.5625
-483403.75
-479087.5
-477034.875
-477681.0625
-480856.125
-485741.375
-491065.875
-495468.1875
-497888.1875
-497850.375
-495552.875
-491752.9375
-487511.0625
-483891.6875
-481714.6875
-481415.375
-483024.6875
-486243.3125
-490565.6875
-495414.375
-500255.0
-504680.75
-508463.0
-511570.0625
-514155.0625
-516516.375
-519033.125
-522083.8125
-525956.125
-530760.4375
-536361.125
-542342.6875
-548029.375
-552572.9375
-555110.4375
-554971.8125
-551891.5625
-546160.0625
-538651.75
-530693.9375
-523788.6875
-519254.5625
-517891.4375
-519778.0
-524270.125
-530207.4375
-536259.5625
-541302.25
-544703.875
-546444.0
-547045.9375
-547368.0
-548333.4375
-550679.75
-554782.8125
-560573.25
-567540.0
-574804.5625
-581259.125
-585762.75
-587380.3125
-585623.8125
-580626.3125
-573172.9375
-564540.9375
-556165.1875
-549223.6875
-544288.625
-541186.875
-539144.9375
-537179.875
-534588.125
-531329.6875
-528133.9375
-526264.9375
-527028.6875
-531220.125
-538740.9375
-548549.5625
-558964.625
-568191.625
-574852.8125
-578308.5
-578664.5625
-576506.625
-572524.25
-567222.5
-560855.5625
-553588.1875
-545760.9375
-538076.875
-531563.9375
-527285.75
-525914.4375
-527366.5
-530695.6875
-534329.1875
-536579.0625
-536230.1875
-532962.5625
-527431.75
-520977.875
-515089.3125
-510847.75
-508578.3125
-507829.1875
-507660.8125
-507097.625
-505542.3125
-502991.5625
-499990.6875
-497380.875
-495964.0
-496223.125
-498185.0
-501438.9375
-505267.6875
-508821.6875
-511284.75
-512008.375
-510615.375
-507074.875
-501732.375
-495269.875
-488574.125
-482530.25
-477796.625
-474648.4375
-472962.25
-472361.375
-472465.75
-473133.3125
-474571.4375
-477249.1875
-481635.75
-487878.25
-495573.25
-503753.6875
-511118.8125
-516426.25
-518887.875
-518408.3125
-515578.5
-511442.5625
-507154.5
-503672.6875
-501601.625
-501201.25
-502496.3125
-505376.9375
-509611.125
-514768.1875
-520131.4375
-524714.3125
-527454.25
-527562.5625
-524903.625
-520222.0625
-515069.5625
-511396.4375
-510921.0625
-514504.375
-521776.375
-531179.375
-540430.4375
-547243.3125
-550047.8125
-548449.9375
-543283.3125
-536258.6875
-529364.1875
-524240.25
-521736.0
-521763.9375
-523453.0
-525503.8125
-526608.25
-525806.4375
-522700.4375
-517501.625
-510930.0
-504010.5
-497820.875
-493249.5625
-490818.125
-490609.125
-492313.1875
-495369.3125
-499137.875
-503031.8125
-506554.3125
-509243.4375
-510583.5625
-509974.5
-506832.6875
-500827.5
-492165.6875
-481778.3125
-471269.9375
-462579.1875
-457432.3125
-456789.3125
-460515.5
-467439.1875
-475790.9375
-483846.5625
-490490.125
-495443.1875
-499060.9375
-501809.75
-503710.1875
-504061.0
-501632.6875
-495282.6875
-484715.375
-471001.1875
-456548.5
-444459.9375
-437494.8125
-437062.3125
-442684.5
-452173.9375
-462460.4375
-470713.5
-475280.625
-476057.5
-474177.625
-471224.5
-468380.8125
-465929.6875
-463326.375
-459755.6875
-454844.0
-449118.0625
-443940.0
-440924.75
-441118.9375
-444357.3125
-449138.875
-453118.1875
-454012.1875
-450521.6875
-442858.1875
-432653.0
-422311.25
-414117.0625
-409487.0
-408667.4375
-410937.875
-415144.25
-420253.25
-425655.25
-431114.8125
-436476.1875
-441361.1875
-445088.8125
-446899.875
-446381.875
-443854.0
-440469.3125
-437923.9375
-437860.125
-441209.875
-447768.8125
-456191.0
-464407.8125
-470292.625
-472300.625
-469851.125
-463354.875
-453949.25
-443107.1875
-432291.0
-422743.625
-415405.8125
-410882.8125
-409391.4375
-410685.5625
-414027.8125
-418298.125
-422274.625
-425019.375
-426213.5
-426267.5
-426117.9375
-426770.3125
-428785.8125
-431962.0625
-435379.1875
-437810.1875
-438305.0625
-436657.3125
-433504.875
-429994.75
-427165.9375
-425361.0
-423984.9375
-421765.25
-417419.8125
-410419.1875
-401459.75
-392382.1875
-385525.625
-382780.6875
-384760.4375
-390467.625
-397618.0
-403483.75
-405892.25
-403957.0
-398252.375
-390406.6875
-382340.6875
-375514.0625
-370493.5625
-366975.25
-364164.5625
-361270.5625
-357861.0625
-353945.6875
-349824.0625
-345858.8125
-342344.5
-339543.0625
-337818.5625
-337713.8125
-339829.9375
-344493.625
-351355.25
-359155.0
-365862.25
-369228.8125
-367583.5
-360536.625
-349258.0
-336152.3125
-324021.125
-315041.8125
-309994.6875
-308072.625
-307352.5
-305711.625
-301775.125
-295470.125
-287951.5
-280952.5
-275875.5
-273044.875
-271459.5625
-269145.125
-263938.375
-254355.8125
-240183.0
-222562.75
-203587.875
-185597.6875
-170469.0625
-159145.4375
-151512.0
-146572.25
-142787.375
-138433.0625
-131886.3125
-121832.625
-107424.3125
-88410.5
-65214.3125
-38895.3125
-10943.625
17086.4375
44015.1875
69397.9375
93669.25
118006.5625
143965.8125
173039.6875
206314.3125
244346.5
287271.125
335039.6875
387640.9375
445184.125
507821.4375
575587.75
648290.625
725555.5625
807042.125
892738.0625
983178.4375
1079460.5
1183021.125
1295266.6875
1417229.875
1549423.125
1691966.1875
1844931.0625
2008732.625
2184366.25
2373363.5625
2577470.625
2798190.9375
3036399.6875
3292202.25
3565096.1875
3854350.5625
4159422.375
4480220.125
4817105.6875
5170653.1875
5541293.4375
5929013.1875
6333236.375
6752914.5
7186752.25
7633435.625
8091742.875
8560485.0
9038306.875
9523436.5
1.001347525E7
1.05052849375E7
1.09949705E7
1.14779188125E7
1.1948853875E7
1.24018959375E7
1.28306546875E7
1.32284014375E7
1.358835325E7
1.39040563125E7
1.416980925E7
1.4381040375E7
1.4534563875E7
1.4628682E7
1.4663147125E7
1.463903025E7
1.4558543E7
1.44248363125E7
1.4241774625E7
1.40136755E7
1.37450260625E7
1.3440223E7
1.31034068125E7
1.27384503125E7
1.2349108875E7
1.1939264125E7
1.1513133875E7
1.10753134375E7
1.063057225E7
1.01834384375E7
9737712.25
9296106.375
8860181.875
8430637.4375
8007862.3125
7592545.0625
7186097.375
6790720.25
6409088.9375
6043788.9375
5696740.0625
5368842.0625
5059976.625
4769343.1875
4495966.6875
4239150.3125
3998685.25
3774749.1875
3567569.125
3377031.8125
3202443.6875
3042574.125
2895985.625
2761526.4375
2638784.5625
2528309.6875
2431496.25
2350149.625
2285875.75
2239501.6875
2210723.25
2198096.5625
2199372.3125
2212059.8125
2234038.0625
2264027.875
2301797.1875
2348069.75
2404206.3125
2471793.3125
2552284.75
2646797.25
2756080.9375
2880609.125
3020691.6875
3176523.5625
3348138.25
3535306.25
3737465.75
3953770.8125
4183283.5625
4425250.5625
4679334.8125
4945662.5
5224608.625
5516360.6875
5820418.5625
6135248.125
6458267.0
6786215.1875
7115795.4375
7444339.0
7770226.0625
8092881.875
8412352.25
8728645.0
9041127.0625
9348238.375
9647631.875
9936646.9375
1.02128675625E7
1.04744828125E7
1.0720274375E7
1.094925E7
1.11601294375E7
1.1350971375E7
1.15191638125E7
1.1661818625E7
1.17763974375E7
1.18612691875E7
1.1915916625E7
1.19406800625E7
1.193615675E7
1.19025608125E7
1.18393834375E7
1.1745562125E7
1.16201179375E7
1.14629799375E7
1.127560075E7
1.10610391875E7
1.08234176875E7
1.05669513125E7
1.02949489375E7
1.000921475E7
9710110.0625
9397244.75
9070497.3125
8730920.25
8381151.8125
8025174.9375
7667551.0
7312465.875
6962978.125
6620740.625
6286238.4375
5959367.1875
5640056.75
5328671.9375
5026064.3125
4733325.0625
4451415.25
4180872.0
3921713.75
3673548.75
3435795.25
3207893.75
2989433.1875
2780188.125
2580118.375
2389385.3125
2208391.4375
2037791.875
1878398.8125
1730936.9375
1595689.875
1472167.625
1358960.875
1253901.0
1154525.125
1058702.875
965191.125
873889.0625
785680.0625
701916.5
623757.125
551628.75
485027.375
422724.0625
363267.1875
305551.6875
249212.5
194692.125
142978.875
95153.5625
51942.4375
13449.6875
-20857.5625
-51947.9375
-80920.8125
-108720.5625
-135948.5625
-162786.75
-189003.9375
-214007.8125
-236933.75
-256788.5625
-272669.4375
-284044.5
-291023.1875
-294508.1875
-296123.875
-297886.25
-301680.0
-308705.125
-319093.5625
-331851.5
-345171.5625
-357017.3125
-365778.875
-370770.3125
-372401.125
-371979.0625
-371235.8125
-371754.1875
-374496.5625
-379573.5625
-386300.0625
-393485.6875
-399846.5625
-404407.625
-406789.75
-407316.875
-406928.9375
-406923.4375
-408585.4375
-412793.4375
-419705.4375
-428626.125
-438120.75
-446371.5625
-451689.375
-453024.1875
-450299.3125
-444441.0
-437081.625
-430037.6875
-424754.75
-421928.125
-421433.9375
-422576.5
-424524.75
-426734.0
-429165.1875
-432215.0
-436407.0
-442004.0625
-448734.6875
-455767.625
-461947.0625
-466180.0
-467801.8125
-466765.25
-463589.9375
-459124.9375
-454255.4375
-449693.1875
-445923.125
-443284.3125
-442082.25
-442622.3125
-445107.875
-449444.5625
-455072.0625
-460956.8125
-465818.1875
-468540.875
-468618.3125
-466426.4375
-463176.375
-460526.875
-459985.75
-462337.5625
-467334.3125
-473786.125
-480019.875
-484517.75
-486471.375
-486024.3125
-484112.25
-481982.5
-480608.25
-480250.6875
-480348.375
-479768.375
-477299.6875
-472173.875
-464402.375
-454807.4375
-444760.625
-435757.8125
-429010.75
-425203.75
-424475.375
-426582.0625
-431130.8125
-437761.5625
-446206.875
-456230.5625
-467511.125
-479555.75
-491706.0625
-503243.5625
-513547.875
-522237.0
-529229.5625
-534712.125
-539039.4375
-542621.625
-545848.6875
-549069.3125
-552603.875
-556745.375
-561711.375
-567540.5
-573972.875
-580383.0
-585828.5
-589241.875
-589730.3125
-586892.25
-581037.4375
-573214.4375
-565011.5
-558175.375
-554156.5625
-553723.0625
-556759.8125
-562315.25
-568874.1875
-574769.125
-578603.3125
-579568.0
-577573.75
-573182.0
-567379.5625
-561279.75
-555842.75
-551690.375
-549051.625
-547831.4375
-547758.625
-548549.4375
-550026.1875
-552153.125
-554985.3125
-558562.125
-562798.5625
-567426.8125
-572020.0625
-576091.9375
-579229.9375
-581201.125
-581978.375
-581670.375
-580386.5
-578106.4375
-574629.375
-569649.9375
-562945.625
-554602.375
-545168.0625
-535641.1875
-527262.625
-521164.125
-517999.375
-517704.75
-519495.4375
-522112.6875
-524234.25
-524894.125
-523754.5
-521138.8125
-517836.125
-514778.5625
-512735.9375
-512139.0625
-513070.0
-515368.5
-518757.3125
-522902.25
-527386.875
-531655.25
-535015.5625
-536772.625
-536476.125
-534180.75
-530566.8125
-526806.25
-524167.875
-523500.375
-524820.75
-527229.3125
-529244.0
-529453.9375
-527220.25
-523093.25
-518712.1875
-516172.1875
-517098.6875
-521828.125
-529082.625
-536331.375
-540730.75
-540266.375
-534609.875
-525307.75
-515204.0
-507333.3125
-503757.8125
-504846.0
-509291.9375
-514841.5625
-519375.125
-521846.5625
-522659.625
-523333.3125
-525643.5
-530664.6875
-538172.3125
-546681.8125
-554094.75
-558639.25
-559660.0
-557899.0625
-555152.125
-553475.75
-554316.1875
-557943.5
-563414.125
-569030.75
-573052.875
-574326.6875
-572581.75
-568327.375
-562476.25
-555929.4375
-549328.0625
-543052.3125
-537390.375
-532712.9375
-529501.0
-528183.5
-528872.9375
-531165.625
-534155.4375
-536698.625
-537833.1875
-537162.875
-535023.875
-532354.0
-530326.0
-529915.5
-531593.8125
-535258.0
-540383.875
-546280.125
-552292.0625
-557862.9375
-562471.75
-565556.125
-566545.375
-565056.625
-561182.8125
-555707.875
-550072.625
-546016.6875
-544984.25
-547527.75
-552989.0
-559644.9375
-565310.375
-568177.125
-567546.4375
-564139.5
-559842.9375
-556989.875
-557473.5625
-562055.9375
-570135.125
-580028.0
-589604.75
-596981.75
-600996.0
-601320.1875
-598262.875
-592433.875
-584479.9375
-575010.5625
-564693.875
-554392.0
-545182.625
-538189.25
-534266.5625
-533688.25
-536004.5625
-540155.5625
-544801.375
-548717.3125
-551075.5625
-551501.25
-549921.5
-546336.625
-540683.375
-532892.5625
-523117.6875
-511987.9375
-500698.5625
-490820.0
-483853.5
-480709.5625
-481353.75
-484805.1875
-489515.4375
-493970.375
-497243.125
-499246.625
-500580.0625
-502064.5625
-504219.5
-506955.6875
-509642.9375
-511508.75
-512139.375
-511794.5
-511334.875
-511769.8125
-513642.5625
-516581.4375
-519286.5625
-520017.6875
-517395.25
-511150.4375
-502454.8125
-493632.25
-487335.625
-485520.875
-488655.3125
-495504.125
-503589.8125
-510128.875
-513049.8125
-511679.1875
-506843.0
-500392.9375
-494407.75
-490429.375
-489036.9375
-489876.9375
-492053.5
-494639.75
-497059.1875
-499195.25
-501245.75
-503466.25
-505976.1875
-508732.1875
-511651.1875
-514766.3125
-518274.5625
-522404.5625
-527148.75
-532004.75
-535897.0
-537378.6875
-535082.8125
-528260.0
-517179.125
-503205.375
-488495.9375
-475409.9375
-465844.0625
-460734.1875
-459888.875
-462188.1875
-466043.6875
-469929.6875
-472795.75
-474240.1875
-474430.0625
-473848.4375
-472995.125
-472160.5625
-471340.25
-470292.8125
-468693.375
-466309.75
-463134.875
-459432.0625
-455683.625
-452461.75
-450262.0
-449351.125
-449677.25
-450873.5625
-452360.0625
-453512.375
-453842.125
-453127.0625
-451445.0625
-449105.875
-446514.5625
-444026.625
-441853.5
-440045.9375
-438540.5625
-437221.5
-435948.1875
-434527.5625
-432655.125
-429886.0625
-425693.625
-419635.6875
-411580.875
-401892.75
-391458.875
-381499.4375
-373182.5
-367172.625
-363289.75
-360438.4375
-356868.3125
-350696.25
-340509.75
-325830.4375
-307267.875
-286318.5
-264900.6875
-244814.1875
-227323.6875
-212992.9375
-201778.6875
-193283.375
-187019.9375
-182564.6875
-179559.0625
-177609.3125
-176183.625
-174597.125
-172112.9375
-168111.1875
-162233.4375
-154419.0625
-144806.9375
-133553.1875
-120659.5
-105904.0625
-88907.375
-69288.0625
-46810.75
-21429.8125
6807.875
37949.0
72294.0625
110412.4375
152959.625
200355.0625
252474.3125
308538.375
367319.5
427646.8125
489044.75
552243.9375
619319.9375
693342.75
777613.5625
874743.9375
985916.125
1110614.4375
1246945.25
1392438.3125
1545036.375
1703906.0625
1869776.9375
2044700.25
2231347.25
2432137.25
2648539.625
2880808.625
3128224.625
3389710.4375
3664547.3125
3952888.75
4255867.1875
4575263.4375
4912887.875
5269932.625
5646554.375
6041839.125
6454136.375
6881598.625
7322679.0
7776369.125
8242070.125
8719145.75
9206335.75
9701259.8125
1.02002009375E7
1.069824125E7
1.1189683875E7
1.16685936875E7
1.2129258375E7
1.256642625E7
1.297528425E7
1.33512509375E7
